# Created by:        SpecsLab2, Version 2.55-r18120
# 
# XY-Serializer Export Settings: as follows
#   Comment Prefix:           #
#   Counts Per Second:        yes
#   Kinetic Energy Axis:      yes
#   Separate Scan Data:       no
#   Separate Channel Data:    no
#   External Channel Data:    no
#   Transmission Function:    no
#   Interpolation:            no
#   Asymmetry Recalculation:  no
#   ErrorBar:                 no
# 
# values in kinetic energy
# Region:            CrO overview Mg anode
# Analysis Method:   XPS
# Analyzer:          PHOIBOS HSA3000 SCD
# Analyzer Lens:     MediumArea
# Analyzer Slit:     5: 1dia\1x3
# Scan Mode:         FixedAnalyzerTransmission
# Number of Scans:   25
# Curves/Scan:       1
# Values/Curve:      2011
# Dwell Time:        0.1
# Excitation Energy: 1253.6
# Kinetic Energy:    253.6
# Pass Energy:       50
# Bias Voltage:      100
# Detector Voltage:  2950
# Eff. Workfunction: 4.5
# Source:            XRayDummy
# Comment:           
#
# Cycle: 0
#
# Cycle: 0, Curve: 0
#
# ColumnLabels: energy counts/s
#
253.6  11175.2
254.1  11145.2
254.6  11244.4
255.1  11466
255.6  11507.6
256.1  11533.6
256.6  11526
257.1  11501.6
257.6  11620.4
258.1  11487.6
258.6  11605.2
259.1  11645.6
259.6  11723.2
260.1  11612.4
260.6  11606.8
261.1  11605.6
261.6  11577.6
262.1  11641.6
262.6  11465.6
263.1  11632.4
263.6  11668.4
264.1  11506.4
264.6  11549.6
265.1  11587.2
265.6  11578.8
266.1  11554.4
266.6  11640
267.1  11433.6
267.6  11511.6
268.1  11514.4
268.6  11502.8
269.1  11607.2
269.6  11604.8
270.1  11486.8
270.6  11449.6
271.1  11339.2
271.6  11392.8
272.1  11484.4
272.6  11506.4
273.1  11399.6
273.6  11597.6
274.1  11462.8
274.6  11480.4
275.1  11423.2
275.6  11482.8
276.1  11332.8
276.6  11452
277.1  11545.2
277.6  11632
278.1  11554
278.6  11584.4
279.1  11549.6
279.6  11636
280.1  11535.6
280.6  11536.4
281.1  11516.8
281.6  11646.4
282.1  11628.8
282.6  11559.6
283.1  11530.4
283.6  11556
284.1  11570.4
284.6  11750.4
285.1  11774
285.6  11774.4
286.1  11796.8
286.6  11861.2
287.1  11740
287.6  11843.6
288.1  11859.6
288.6  11784
289.1  11904
289.6  11864
290.1  11852.8
290.6  11794
291.1  11897.2
291.6  11830
292.1  11750.8
292.6  11806.8
293.1  11748
293.6  11752.8
294.1  11815.2
294.6  11619.2
295.1  11750
295.6  11707.6
296.1  11912
296.6  11897.6
297.1  11895.6
297.6  11753.2
298.1  11762.4
298.6  11823.2
299.1  11802.8
299.6  11708.4
300.1  11723.2
300.6  11859.6
301.1  11858
301.6  11822.8
302.1  11763.6
302.6  11846
303.1  11908.8
303.6  11801.6
304.1  11837.6
304.6  11941.6
305.1  11996.8
305.6  11991.6
306.1  11796.4
306.6  11967.2
307.1  11830.8
307.6  11815.2
308.1  11782.4
308.6  11974.8
309.1  12009.2
309.6  12030.8
310.1  11922.8
310.6  12023.6
311.1  11960
311.6  11922
312.1  11735.6
312.6  11921.2
313.1  12002.8
313.6  11966
314.1  12145.2
314.6  12112.4
315.1  12073.6
315.6  11927.6
316.1  12137.2
316.6  11969.2
317.1  12074.8
317.6  11992
318.1  12026.4
318.6  12198.8
319.1  11984.4
319.6  12117.2
320.1  12126
320.6  11895.6
321.1  12243.2
321.6  11978
322.1  12053.2
322.6  12026.4
323.1  12082.8
323.6  11991.6
324.1  12030
324.6  12086.4
325.1  12156.4
325.6  12130.8
326.1  12051.2
326.6  12177.6
327.1  11964
327.6  12162
328.1  12052.8
328.6  11986.4
329.1  12114
329.6  12077.6
330.1  12112.4
330.6  12161.2
331.1  12111.2
331.6  12194.4
332.1  12091.2
332.6  12190.4
333.1  12112.4
333.6  12247.2
334.1  12229.2
334.6  12178.8
335.1  12252
335.6  12237.6
336.1  12246.4
336.6  12399.6
337.1  12438
337.6  12218
338.1  12410
338.6  12092
339.1  12258.8
339.6  12148
340.1  12186.8
340.6  12214.4
341.1  12187.2
341.6  12233.6
342.1  12130
342.6  12285.2
343.1  12156.4
343.6  12184.8
344.1  12249.2
344.6  12164
345.1  12246.8
345.6  12409.6
346.1  12316
346.6  12541.2
347.1  12346
347.6  12361.2
348.1  12421.6
348.6  12255.6
349.1  12311.6
349.6  12320
350.1  12157.2
350.6  12301.2
351.1  12257.2
351.6  12134.4
352.1  12096.4
352.6  12087.2
353.1  12111.6
353.6  12074.8
354.1  12096.4
354.6  11989.2
355.1  11926
355.6  12278.4
356.1  12016.4
356.6  12032.4
357.1  12144
357.6  11990.4
358.1  12170.4
358.6  12130
359.1  12105.6
359.6  12122
360.1  12109.2
360.6  11998.8
361.1  12163.2
361.6  11982.4
362.1  12000.8
362.6  12058.4
363.1  12080
363.6  12050.4
364.1  12087.2
364.6  12213.2
365.1  12165.2
365.6  12200.8
366.1  12028
366.6  12057.6
367.1  12082
367.6  12305.6
368.1  12065.2
368.6  12058.8
369.1  12027.6
369.6  12040.8
370.1  12103.2
370.6  11912.8
371.1  12029.6
371.6  12070
372.1  12149.6
372.6  12077.2
373.1  12160.8
373.6  12082.8
374.1  12144
374.6  12048.4
375.1  12052.4
375.6  12060.4
376.1  12024.4
376.6  12064
377.1  11918.8
377.6  12107.6
378.1  12041.6
378.6  12052
379.1  12048.4
379.6  11968.4
380.1  12103.6
380.6  12108.4
381.1  12036.8
381.6  12064.4
382.1  12041.6
382.6  12054
383.1  12090.8
383.6  12038
384.1  12030.8
384.6  12116.8
385.1  12108.4
385.6  12148.8
386.1  12026.8
386.6  11997.6
387.1  11945.2
387.6  12008
388.1  11934.4
388.6  11953.6
389.1  11971.2
389.6  11938
390.1  12131.2
390.6  12085.2
391.1  12261.6
391.6  12115.6
392.1  12181.6
392.6  12351.2
393.1  12314.4
393.6  12344.8
394.1  12354.8
394.6  12371.2
395.1  12335.2
395.6  12298.8
396.1  12124
396.6  12347.6
397.1  12108
397.6  12298.4
398.1  12266.8
398.6  12178.4
399.1  12245.6
399.6  12122
400.1  11977.6
400.6  12144.8
401.1  12157.2
401.6  12117.6
402.1  12005.2
402.6  11992
403.1  12102
403.6  11948.8
404.1  12095.6
404.6  12140.4
405.1  12135.6
405.6  11985.2
406.1  12001.6
406.6  12095.2
407.1  12142
407.6  12018
408.1  12183.6
408.6  12068
409.1  12230.4
409.6  12008.4
410.1  12078.8
410.6  12330.8
411.1  12161.6
411.6  12245.6
412.1  12186.8
412.6  12238
413.1  12199.6
413.6  12177.6
414.1  12358.8
414.6  12208
415.1  12074
415.6  12194
416.1  12307.6
416.6  12234.4
417.1  12257.6
417.6  12294
418.1  12296
418.6  12248
419.1  12218.4
419.6  12101.6
420.1  12175.6
420.6  12283.6
421.1  12248.4
421.6  12256.4
422.1  12060
422.6  12102
423.1  12312.4
423.6  12146.8
424.1  12231.6
424.6  12252.8
425.1  12210.8
425.6  12115.6
426.1  12312.4
426.6  12229.6
427.1  12271.6
427.6  12296.8
428.1  12142.4
428.6  12234
429.1  12189.6
429.6  12192
430.1  12325.6
430.6  12295.2
431.1  12262
431.6  12348.8
432.1  12330.8
432.6  12342
433.1  12271.6
433.6  12306
434.1  12306.8
434.6  12447.2
435.1  12335.2
435.6  12502
436.1  12511.2
436.6  12504.4
437.1  12592.8
437.6  12426
438.1  12596
438.6  12547.6
439.1  12575.2
439.6  12647.2
440.1  12625.2
440.6  12644.4
441.1  12708
441.6  12336
442.1  12490.4
442.6  12516
443.1  12450.4
443.6  12512
444.1  12494.4
444.6  12425.6
445.1  12598.4
445.6  12506
446.1  12499.2
446.6  12413.2
447.1  12442.8
447.6  12366
448.1  12486.4
448.6  12501.6
449.1  12540.8
449.6  12459.6
450.1  12643.2
450.6  12684.4
451.1  12535.2
451.6  12600.8
452.1  12618
452.6  12430
453.1  12540
453.6  12677.2
454.1  12504.4
454.6  12423.6
455.1  12456.8
455.6  12407.6
456.1  12328.4
456.6  12356
457.1  12406.4
457.6  12542.4
458.1  12515.2
458.6  12500.4
459.1  12672.8
459.6  12505.2
460.1  12500.8
460.6  12549.2
461.1  12554
461.6  12625.6
462.1  12722.4
462.6  12671.2
463.1  12820.4
463.6  12820
464.1  12968.8
464.6  12728.8
465.1  12780
465.6  12933.6
466.1  12948
466.6  13137.6
467.1  13171.2
467.6  13157.6
468.1  13149.2
468.6  13224.4
469.1  13147.6
469.6  13071.2
470.1  13065.2
470.6  13176
471.1  13185.6
471.6  13358.4
472.1  13290
472.6  13170.4
473.1  13158.8
473.6  13332.4
474.1  13142.8
474.6  13271.6
475.1  13098
475.6  13099.2
476.1  13098.8
476.6  13034
477.1  13015.2
477.6  12952
478.1  12916.4
478.6  12926.4
479.1  12993.6
479.6  13076.4
480.1  13076.4
480.6  13159.2
481.1  13200.4
481.6  13124.4
482.1  13049.2
482.6  12923.6
483.1  12820.4
483.6  12629.2
484.1  12618.4
484.6  12529.2
485.1  12286.4
485.6  12249.6
486.1  12055.6
486.6  11950.4
487.1  11640.8
487.6  11609.6
488.1  11422.8
488.6  11256
489.1  11139.2
489.6  11089.6
490.1  11153.6
490.6  10996.4
491.1  10954
491.6  10879.2
492.1  10824.4
492.6  10713.6
493.1  10820.4
493.6  10735.6
494.1  10733.6
494.6  10630.8
495.1  10491.6
495.6  10535.2
496.1  10405.2
496.6  10394
497.1  10358
497.6  10502.4
498.1  10414.4
498.6  10435.2
499.1  10376
499.6  10559.6
500.1  10570.8
500.6  10678.8
501.1  10924
501.6  11127.2
502.1  11311.2
502.6  11682.8
503.1  11960.8
503.6  12387.6
504.1  12703.2
504.6  12984
505.1  13238.8
505.6  13342.8
506.1  13153.2
506.6  12832.4
507.1  12427.2
507.6  12250.8
508.1  11963.6
508.6  11483.6
509.1  11392
509.6  11287.6
510.1  11159.2
510.6  10724.8
511.1  10646.8
511.6  10491.2
512.1  10405.6
512.6  10298.4
513.1  10140.8
513.6  10102.4
514.1  10037.2
514.6  10004.8
515.1  10028.8
515.6  9970.8
516.1  10030.4
516.6  10189.6
517.1  10192.4
517.6  10178
518.1  10229.2
518.6  10234.8
519.1  10218
519.6  10172.4
520.1  10249.2
520.6  10266.4
521.1  10184.8
521.6  10333.2
522.1  10203.2
522.6  9914.8
523.1  10007.6
523.6  9708
524.1  9638.8
524.6  9491.6
525.1  9171.2
525.6  9138
526.1  8998.8
526.6  8728.8
527.1  8570.8
527.6  8363.6
528.1  8292.4
528.6  8231.6
529.1  8215.2
529.6  8108.4
530.1  8050.8
530.6  8016.8
531.1  8044.4
531.6  7990.4
532.1  7990.4
532.6  7884.4
533.1  7984.4
533.6  7821.2
534.1  7964.8
534.6  7978.4
535.1  7886
535.6  7967.2
536.1  7836
536.6  7902.8
537.1  7750
537.6  7838.4
538.1  7808.4
538.6  7873.2
539.1  7916.4
539.6  7886.8
540.1  7840.8
540.6  7834
541.1  7817.6
541.6  7758.8
542.1  7876
542.6  7837.2
543.1  7890.4
543.6  7877.2
544.1  7902
544.6  7930
545.1  7992.4
545.6  8079.6
546.1  7976
546.6  8027.6
547.1  8032
547.6  8132.8
548.1  8084
548.6  8060.8
549.1  8089.2
549.6  8151.2
550.1  8105.6
550.6  8094.4
551.1  8070.4
551.6  8027.6
552.1  7852.4
552.6  7955.2
553.1  7928.8
553.6  7762
554.1  7780.4
554.6  7826.4
555.1  7803.6
555.6  7690.4
556.1  7776
556.6  7682.4
557.1  7702.8
557.6  7686.4
558.1  7752
558.6  7741.2
559.1  7845.6
559.6  7738.4
560.1  7632.4
560.6  7788.4
561.1  7828
561.6  7772.4
562.1  7707.2
562.6  7785.6
563.1  7684
563.6  7726
564.1  7598
564.6  7660.4
565.1  7658
565.6  7622
566.1  7738
566.6  7690.8
567.1  7700
567.6  7756.8
568.1  7794.8
568.6  7648
569.1  7689.6
569.6  7541.6
570.1  7556
570.6  7424
571.1  7506.8
571.6  7403.2
572.1  7430.4
572.6  7352
573.1  7402
573.6  7365.2
574.1  7285.6
574.6  7360.8
575.1  7320.4
575.6  7346.4
576.1  7195.6
576.6  7274.4
577.1  7326.8
577.6  7251.2
578.1  7320.8
578.6  7235.2
579.1  7181.6
579.6  7196
580.1  7193.2
580.6  7224.4
581.1  7268.8
581.6  7156.8
582.1  7225.2
582.6  7179.6
583.1  7197.6
583.6  7222
584.1  7216
584.6  7252
585.1  7208.4
585.6  7099.2
586.1  7106
586.6  7165.6
587.1  7116
587.6  7197.2
588.1  7201.6
588.6  7203.6
589.1  7186.4
589.6  7217.2
590.1  7274.8
590.6  7236
591.1  7189.6
591.6  7176
592.1  7268.4
592.6  7220.8
593.1  7314.8
593.6  7202.4
594.1  7234.8
594.6  7250.4
595.1  7220.8
595.6  7288.8
596.1  7312
596.6  7268.4
597.1  7149.2
597.6  7205.6
598.1  7245.6
598.6  7238.8
599.1  7120.8
599.6  7310
600.1  7211.2
600.6  7259.6
601.1  7328.8
601.6  7378.8
602.1  7257.6
602.6  7311.2
603.1  7379.2
603.6  7301.6
604.1  7295.2
604.6  7348
605.1  7381.6
605.6  7328.4
606.1  7400
606.6  7389.2
607.1  7293.6
607.6  7346
608.1  7252
608.6  7292.4
609.1  7287.6
609.6  7307.2
610.1  7441.2
610.6  7344.8
611.1  7373.2
611.6  7412.8
612.1  7358
612.6  7253.2
613.1  7358
613.6  7488
614.1  7347.6
614.6  7326.4
615.1  7268.4
615.6  7343.2
616.1  7419.2
616.6  7381.6
617.1  7432.8
617.6  7356.4
618.1  7403.6
618.6  7392
619.1  7452.4
619.6  7392.4
620.1  7496.8
620.6  7462.8
621.1  7323.6
621.6  7319.6
622.1  7452.8
622.6  7456
623.1  7421.2
623.6  7512.4
624.1  7465.2
624.6  7514.4
625.1  7480.8
625.6  7363.2
626.1  7394.8
626.6  7418.8
627.1  7496.4
627.6  7499.6
628.1  7422
628.6  7421.2
629.1  7435.2
629.6  7375.2
630.1  7514.8
630.6  7525.6
631.1  7440.4
631.6  7427.2
632.1  7566.8
632.6  7436.8
633.1  7571.2
633.6  7590.8
634.1  7546
634.6  7627.6
635.1  7585.6
635.6  7624.4
636.1  7618.8
636.6  7589.2
637.1  7712.8
637.6  7742.8
638.1  7644
638.6  7762.8
639.1  7810
639.6  7675.2
640.1  7810.4
640.6  7800.4
641.1  7922
641.6  7820.8
642.1  7850.4
642.6  7735.6
643.1  7679.6
643.6  7657.2
644.1  7716.8
644.6  7681.6
645.1  7706.8
645.6  7603.6
646.1  7722.4
646.6  7746.4
647.1  7753.2
647.6  7633.6
648.1  7864.8
648.6  7836.4
649.1  7926.8
649.6  8013.2
650.1  7935.2
650.6  8024.8
651.1  7841.6
651.6  7879.2
652.1  7890
652.6  7699.6
653.1  7583.2
653.6  7548.8
654.1  7479.2
654.6  7484.4
655.1  7464.8
655.6  7484.4
656.1  7621.6
656.6  7602.4
657.1  7787.2
657.6  7951.2
658.1  8146
658.6  8523.2
659.1  8777.6
659.6  8992.4
660.1  9333.6
660.6  9616.8
661.1  9848.8
661.6  9860
662.1  9637.2
662.6  9090.8
663.1  8596
663.6  8081.6
664.1  7782
664.6  7550.4
665.1  7471.6
665.6  7398.8
666.1  7328.8
666.6  7339.2
667.1  7494.8
667.6  7700.4
668.1  8018.4
668.6  8521.2
669.1  9233.2
669.6  9788.4
670.1  10792.4
670.6  11429.2
671.1  11440.8
671.6  10977.2
672.1  10098.4
672.6  8940.8
673.1  7930.8
673.6  7014
674.1  6537.2
674.6  6184
675.1  6025.6
675.6  5912
676.1  5844
676.6  5846.8
677.1  5764
677.6  5765.6
678.1  5822.8
678.6  5894.4
679.1  5952
679.6  6039.2
680.1  6062.4
680.6  6056.8
681.1  6014.8
681.6  5896
682.1  5811.6
682.6  5716.4
683.1  5681.6
683.6  5469.2
684.1  5478.8
684.6  5416.8
685.1  5352.4
685.6  5441.2
686.1  5476.4
686.6  5355.2
687.1  5424.8
687.6  5506
688.1  5477.6
688.6  5476
689.1  5540.8
689.6  5578.4
690.1  5528.8
690.6  5573.2
691.1  5475.2
691.6  5503.2
692.1  5578.8
692.6  5552.8
693.1  5491.6
693.6  5543.6
694.1  5624.8
694.6  5515.2
695.1  5521.6
695.6  5393.2
696.1  5486.8
696.6  5372.8
697.1  5356.8
697.6  5305.2
698.1  5380.8
698.6  5262
699.1  5414.4
699.6  5272
700.1  5306.8
700.6  5419.6
701.1  5338.4
701.6  5296.8
702.1  5262.4
702.6  5276.8
703.1  5180
703.6  5200
704.1  5104.8
704.6  5124
705.1  5123.2
705.6  5095.2
706.1  5146
706.6  5066.4
707.1  5074.8
707.6  4926
708.1  4908.8
708.6  4826.4
709.1  4790
709.6  4861.2
710.1  4793.2
710.6  4679.2
711.1  4762.4
711.6  4767.6
712.1  4770.4
712.6  4810
713.1  4879.6
713.6  4993.6
714.1  5274
714.6  5728.4
715.1  6356.4
715.6  7117.2
716.1  8272.8
716.6  9478.4
717.1  10448.8
717.6  10616.8
718.1  10108
718.6  9144.8
719.1  8210.4
719.6  7188.4
720.1  6392.4
720.6  5421.2
721.1  4848.4
721.6  4526
722.1  4385.2
722.6  4328.4
723.1  4284.4
723.6  4289.2
724.1  4352
724.6  4320
725.1  4464.8
725.6  4584.8
726.1  4639.6
726.6  4627.6
727.1  4646.8
727.6  4698.8
728.1  4642
728.6  4527.6
729.1  4337.2
729.6  4243.2
730.1  4123.2
730.6  4027.6
731.1  3991.2
731.6  3924.8
732.1  3976.8
732.6  3899.2
733.1  3904
733.6  3891.2
734.1  3911.6
734.6  3915.6
735.1  3949.2
735.6  3966.4
736.1  3921.6
736.6  4017.2
737.1  3916.4
737.6  3940
738.1  3971.2
738.6  3951.6
739.1  3912
739.6  3991.2
740.1  4060.4
740.6  3978
741.1  4056
741.6  4056.8
742.1  4026.8
742.6  4000.4
743.1  3979.2
743.6  3923.6
744.1  3933.2
744.6  3943.2
745.1  3899.6
745.6  4053.6
746.1  3944.4
746.6  3953.6
747.1  3916.4
747.6  3970
748.1  3926
748.6  3864
749.1  3942
749.6  3920
750.1  3908.8
750.6  3905.6
751.1  3919.2
751.6  3831.6
752.1  3907.2
752.6  3970.8
753.1  3842.8
753.6  3842
754.1  3800
754.6  3906.8
755.1  3836
755.6  3892.4
756.1  3891.2
756.6  3911.6
757.1  3897.2
757.6  3958.4
758.1  3923.6
758.6  3894
759.1  3892
759.6  3979.6
760.1  3961.2
760.6  3976.8
761.1  3994.8
761.6  3926
762.1  3937.6
762.6  3899.2
763.1  3876.4
763.6  3891.6
764.1  3907.2
764.6  3941.2
765.1  3954
765.6  3881.6
766.1  3910.8
766.6  3850.8
767.1  3903.6
767.6  3888.4
768.1  3894
768.6  3968.8
769.1  3924.8
769.6  3886.8
770.1  3903.6
770.6  3886.8
771.1  3929.6
771.6  3884.8
772.1  3935.2
772.6  3862.4
773.1  3916
773.6  3893.2
774.1  3985.6
774.6  3898.4
775.1  3853.6
775.6  3920.8
776.1  3954.4
776.6  3950.4
777.1  3884
777.6  3913.6
778.1  3926.4
778.6  3922
779.1  3847.2
779.6  3873.6
780.1  3938.4
780.6  3914
781.1  3934.4
781.6  4002.4
782.1  3910.8
782.6  3958
783.1  3906
783.6  3940.8
784.1  3886
784.6  3943.2
785.1  3913.2
785.6  3916
786.1  3992.4
786.6  3922.8
787.1  3983.6
787.6  3969.2
788.1  4006
788.6  3945.6
789.1  3966.4
789.6  3922
790.1  3930.8
790.6  3929.6
791.1  4014.8
791.6  4017.2
792.1  3996.4
792.6  3916.8
793.1  3969.6
793.6  3982.8
794.1  3917.6
794.6  4020.8
795.1  3898.4
795.6  3944.4
796.1  4048.4
796.6  3911.2
797.1  3909.6
797.6  3954.4
798.1  4003.6
798.6  3945.2
799.1  3943.6
799.6  4015.6
800.1  3926.8
800.6  3999.2
801.1  4066
801.6  4037.6
802.1  3927.6
802.6  4040.4
803.1  4005.6
803.6  4005.6
804.1  4037.2
804.6  3973.2
805.1  4092.8
805.6  3936
806.1  3969.6
806.6  3998
807.1  4036
807.6  4085.2
808.1  4052
808.6  4066.4
809.1  4091.6
809.6  4102.4
810.1  4113.2
810.6  4130.4
811.1  4137.2
811.6  4074.4
812.1  4068.4
812.6  4128.8
813.1  4059.6
813.6  4023.2
814.1  4033.6
814.6  4054
815.1  4004.8
815.6  3968
816.1  4019.6
816.6  3958
817.1  4025.2
817.6  3996
818.1  4021.6
818.6  4023.6
819.1  3971.6
819.6  4123.2
820.1  4034.8
820.6  3968.4
821.1  4028.8
821.6  4032
822.1  4065.2
822.6  3996.4
823.1  4059.2
823.6  4112.8
824.1  3943.6
824.6  4063.6
825.1  4055.2
825.6  4124
826.1  3933.2
826.6  3983.6
827.1  4013.6
827.6  4006.4
828.1  3961.6
828.6  4020.8
829.1  4065.2
829.6  4044
830.1  4003.6
830.6  4101.2
831.1  4076.4
831.6  4051.6
832.1  4144
832.6  4129.6
833.1  4181.2
833.6  4210
834.1  4285.6
834.6  4234.8
835.1  4239.2
835.6  4279.2
836.1  4203.6
836.6  4249.6
837.1  4229.2
837.6  4218.4
838.1  4202
838.6  4150.8
839.1  4160.4
839.6  4043.6
840.1  4059.2
840.6  3954.8
841.1  3925.6
841.6  3920
842.1  3812.8
842.6  3848.8
843.1  3831.6
843.6  3855.2
844.1  3882
844.6  3883.2
845.1  3850
845.6  3846
846.1  3847.2
846.6  3941.6
847.1  3891.6
847.6  3952
848.1  3960.4
848.6  3987.6
849.1  4072.4
849.6  4059.6
850.1  4167.2
850.6  4266
851.1  4300.4
851.6  4326.4
852.1  4280.4
852.6  4276.4
853.1  4300
853.6  4324.8
854.1  4354.8
854.6  4257.2
855.1  4262.4
855.6  4242
856.1  4201.2
856.6  4132.8
857.1  3986
857.6  3864.8
858.1  3763.6
858.6  3738.8
859.1  3736.4
859.6  3708.4
860.1  3666.8
860.6  3654.8
861.1  3699.6
861.6  3700.8
862.1  3634.4
862.6  3604.8
863.1  3628.8
863.6  3607.2
864.1  3619.2
864.6  3644.8
865.1  3593.2
865.6  3570.4
866.1  3620.8
866.6  3515.2
867.1  3555.6
867.6  3552
868.1  3609.2
868.6  3591.6
869.1  3569.6
869.6  3557.2
870.1  3520.8
870.6  3576
871.1  3592.8
871.6  3645.2
872.1  3556.8
872.6  3509.6
873.1  3606.4
873.6  3553.2
874.1  3540.8
874.6  3531.6
875.1  3571.6
875.6  3568.4
876.1  3589.2
876.6  3527.6
877.1  3503.6
877.6  3546.8
878.1  3581.2
878.6  3632
879.1  3550.4
879.6  3522
880.1  3549.2
880.6  3549.6
881.1  3488
881.6  3495.2
882.1  3528
882.6  3518
883.1  3486.4
883.6  3463.2
884.1  3508
884.6  3499.6
885.1  3534.8
885.6  3466.4
886.1  3469.2
886.6  3525.6
887.1  3512.8
887.6  3510.8
888.1  3490
888.6  3510
889.1  3518
889.6  3479.6
890.1  3540.4
890.6  3481.6
891.1  3494.4
891.6  3496
892.1  3483.6
892.6  3562.4
893.1  3554
893.6  3564.4
894.1  3584.8
894.6  3550.4
895.1  3522.8
895.6  3527.2
896.1  3517.2
896.6  3588.4
897.1  3534.8
897.6  3711.6
898.1  3652.4
898.6  3787.6
899.1  3751.2
899.6  3888.4
900.1  3788.4
900.6  3783.6
901.1  3758.8
901.6  3916
902.1  4044.4
902.6  4087.6
903.1  3940.4
903.6  3833.6
904.1  3700.8
904.6  3568.8
905.1  3576.8
905.6  3514.8
906.1  3465.2
906.6  3505.2
907.1  3524
907.6  3461.6
908.1  3527.6
908.6  3477.2
909.1  3469.6
909.6  3450.4
910.1  3457.6
910.6  3473.6
911.1  3472.8
911.6  3505.2
912.1  3531.2
912.6  3513.2
913.1  3481.6
913.6  3541.2
914.1  3494
914.6  3476.8
915.1  3450.8
915.6  3510.8
916.1  3524.8
916.6  3510.4
917.1  3464.8
917.6  3486.4
918.1  3546.8
918.6  3512
919.1  3526.4
919.6  3473.2
920.1  3488.8
920.6  3533.2
921.1  3498.8
921.6  3531.2
922.1  3534.4
922.6  3453.2
923.1  3481.6
923.6  3545.2
924.1  3490.4
924.6  3515.6
925.1  3496.4
925.6  3458.4
926.1  3471.6
926.6  3496.8
927.1  3540.4
927.6  3482.8
928.1  3576.8
928.6  3485.6
929.1  3515.6
929.6  3587.6
930.1  3501.6
930.6  3556
931.1  3579.6
931.6  3554.4
932.1  3466.8
932.6  3520
933.1  3478.8
933.6  3516.8
934.1  3521.2
934.6  3590.4
935.1  3509.6
935.6  3505.2
936.1  3527.6
936.6  3586.8
937.1  3528.8
937.6  3552
938.1  3577.2
938.6  3482.4
939.1  3519.2
939.6  3522
940.1  3562
940.6  3536.8
941.1  3593.6
941.6  3647.6
942.1  3601.6
942.6  3636
943.1  3598
943.6  3630.4
944.1  3622.4
944.6  3618.4
945.1  3708
945.6  3643.6
946.1  3626
946.6  3611.6
947.1  3605.6
947.6  3639.6
948.1  3546.8
948.6  3573.2
949.1  3514.4
949.6  3495.2
950.1  3479.6
950.6  3549.6
951.1  3480.4
951.6  3540
952.1  3569.2
952.6  3544
953.1  3610.4
953.6  3680.4
954.1  3628.4
954.6  3687.2
955.1  3706.8
955.6  3720.8
956.1  3770
956.6  3958.8
957.1  3914.8
957.6  3752.4
958.1  3691.6
958.6  3597.6
959.1  3603.6
959.6  3686
960.1  3709.2
960.6  3734.4
961.1  3822.8
961.6  3899.6
962.1  4044.8
962.6  4148.8
963.1  4307.2
963.6  4652.8
964.1  5000.8
964.6  5334.8
965.1  5274.4
965.6  4927.6
966.1  4360
966.6  3935.6
967.1  3663.6
967.6  3474.4
968.1  3389.2
968.6  3395.2
969.1  3328.4
969.6  3310.4
970.1  3341.2
970.6  3401.2
971.1  3407.6
971.6  3375.6
972.1  3407.6
972.6  3397.6
973.1  3462.8
973.6  3481.2
974.1  3481.6
974.6  3447.6
975.1  3463.2
975.6  3415.2
976.1  3359.2
976.6  3326
977.1  3276.4
977.6  3321.6
978.1  3325.6
978.6  3267.2
979.1  3325.6
979.6  3308.8
980.1  3337.6
980.6  3395.2
981.1  3368.4
981.6  3442.8
982.1  3452.8
982.6  3612
983.1  3624.8
983.6  3728
984.1  3634
984.6  3703.6
985.1  3620
985.6  3591.2
986.1  3600.4
986.6  3558.4
987.1  3483.2
987.6  3376
988.1  3425.6
988.6  3294.4
989.1  3279.2
989.6  3145.2
990.1  3197.2
990.6  3140
991.1  3106.4
991.6  3070.4
992.1  3194
992.6  3160.8
993.1  3102
993.6  3150.4
994.1  3142
994.6  3169.2
995.1  3151.6
995.6  3173.2
996.1  3127.2
996.6  3174.4
997.1  3105.2
997.6  3174
998.1  3123.2
998.6  3064.8
999.1  3116.8
999.6  3046.8
1000.1  3093.6
1000.6  3110.4
1001.1  3073.6
1001.6  3060.4
1002.1  3130.4
1002.6  3035.2
1003.1  3035.6
1003.6  3003.6
1004.1  3060.8
1004.6  2945.2
1005.1  2937.2
1005.6  2912.4
1006.1  2831.2
1006.6  2830
1007.1  2796.4
1007.6  2804
1008.1  2818.8
1008.6  2788.4
1009.1  2766.4
1009.6  2712.4
1010.1  2685.6
1010.6  2693.6
1011.1  2695.6
1011.6  2725.2
1012.1  2762
1012.6  2888
1013.1  3034
1013.6  3207.2
1014.1  3451.2
1014.6  3385.2
1015.1  3366.4
1015.6  3478.4
1016.1  3686.8
1016.6  4063.2
1017.1  4349.2
1017.6  4470.8
1018.1  4414.8
1018.6  4320.8
1019.1  4303.2
1019.6  4085.6
1020.1  3778.8
1020.6  3629.6
1021.1  3722
1021.6  3776.8
1022.1  3703.2
1022.6  3364
1023.1  2928
1023.6  2467.2
1024.1  2273.2
1024.6  2176.8
1025.1  2132.4
1025.6  2142.8
1026.1  2122.8
1026.6  2208.4
1027.1  2170.8
1027.6  2108.8
1028.1  2142.8
1028.6  2100.8
1029.1  2101.2
1029.6  2074.4
1030.1  2028.8
1030.6  2050.4
1031.1  2005.2
1031.6  2014.4
1032.1  1984
1032.6  1922.8
1033.1  1891.6
1033.6  1894.4
1034.1  1857.2
1034.6  1812.8
1035.1  1826.8
1035.6  1822
1036.1  1809.6
1036.6  1826
1037.1  1789.6
1037.6  1796
1038.1  1835.6
1038.6  1815.2
1039.1  1768.4
1039.6  1798.4
1040.1  1792
1040.6  1816
1041.1  1802
1041.6  1768.8
1042.1  1803.6
1042.6  1867.2
1043.1  1763.6
1043.6  1836
1044.1  1821.2
1044.6  1817.2
1045.1  1801.6
1045.6  1801.6
1046.1  1764.4
1046.6  1808.8
1047.1  1870
1047.6  1805.2
1048.1  1740.4
1048.6  1817.2
1049.1  1824.8
1049.6  1784.4
1050.1  1819.2
1050.6  1866
1051.1  1847.2
1051.6  1774.4
1052.1  1770.8
1052.6  1826
1053.1  1822
1053.6  1838.4
1054.1  1771.2
1054.6  1836.4
1055.1  1806.4
1055.6  1810.4
1056.1  1809.6
1056.6  1786.8
1057.1  1835.2
1057.6  1802.8
1058.1  1795.6
1058.6  1816.8
1059.1  1790.4
1059.6  1793.2
1060.1  1869.2
1060.6  1850.8
1061.1  1816
1061.6  1822.4
1062.1  1808.8
1062.6  1842.4
1063.1  1844.8
1063.6  1861.2
1064.1  1828.4
1064.6  1824
1065.1  1873.6
1065.6  1841.6
1066.1  1826.8
1066.6  1806
1067.1  1806
1067.6  1801.2
1068.1  1862.4
1068.6  1824.4
1069.1  1869.2
1069.6  1888.8
1070.1  1846.8
1070.6  1838.4
1071.1  1840.8
1071.6  1777.2
1072.1  1832
1072.6  1819.6
1073.1  1815.6
1073.6  1778.8
1074.1  1799.6
1074.6  1806.8
1075.1  1839.6
1075.6  1802.4
1076.1  1842.4
1076.6  1844
1077.1  1878.8
1077.6  1908.8
1078.1  1928.8
1078.6  1966.4
1079.1  1928.8
1079.6  1910.4
1080.1  1923.6
1080.6  1976.8
1081.1  1962.4
1081.6  1888
1082.1  1831.2
1082.6  1837.2
1083.1  1811.6
1083.6  1815.6
1084.1  1832
1084.6  1869.2
1085.1  1878.8
1085.6  1862
1086.1  1844
1086.6  1920.8
1087.1  1833.2
1087.6  1868.8
1088.1  1880.4
1088.6  1862.4
1089.1  1904.8
1089.6  1830.8
1090.1  1832.8
1090.6  1859.6
1091.1  1860
1091.6  1845.2
1092.1  1806
1092.6  1810.4
1093.1  1878
1093.6  1913.6
1094.1  1890.4
1094.6  1932
1095.1  1919.6
1095.6  1864
1096.1  1857.2
1096.6  1914
1097.1  1921.2
1097.6  1844.8
1098.1  1860.8
1098.6  1855.2
1099.1  1916
1099.6  1893.2
1100.1  1849.6
1100.6  1832.4
1101.1  1909.2
1101.6  1851.6
1102.1  1873.2
1102.6  1925.6
1103.1  1850.4
1103.6  1903.2
1104.1  1847.6
1104.6  1900.4
1105.1  1890.8
1105.6  1938.4
1106.1  1912
1106.6  1892.4
1107.1  1924
1107.6  1942.4
1108.1  1906.4
1108.6  1936.4
1109.1  1884.8
1109.6  1843.2
1110.1  1956
1110.6  1866.8
1111.1  1925.2
1111.6  1948
1112.1  1968.8
1112.6  1892
1113.1  1926.4
1113.6  1918.4
1114.1  1865.2
1114.6  1937.2
1115.1  1904
1115.6  1881.6
1116.1  1907.2
1116.6  1933.2
1117.1  1913.2
1117.6  1898
1118.1  1915.2
1118.6  1920.4
1119.1  1881.6
1119.6  1905.2
1120.1  1872.8
1120.6  1911.2
1121.1  1898.4
1121.6  1943.6
1122.1  1879.2
1122.6  1884.8
1123.1  1903.2
1123.6  1931.6
1124.1  1926
1124.6  1946.4
1125.1  1892
1125.6  1922
1126.1  1896
1126.6  1940.8
1127.1  1960.4
1127.6  1915.6
1128.1  1912.8
1128.6  1935.6
1129.1  1896.8
1129.6  1936
1130.1  1946
1130.6  1906
1131.1  1967.2
1131.6  1910.4
1132.1  1922.8
1132.6  1917.2
1133.1  1927.6
1133.6  1915.2
1134.1  1916.4
1134.6  1880.4
1135.1  1916.4
1135.6  1975.6
1136.1  1951.6
1136.6  1945.2
1137.1  1970.4
1137.6  1914.4
1138.1  1915.6
1138.6  1949.2
1139.1  1984
1139.6  1956.4
1140.1  1981.2
1140.6  1913.6
1141.1  1982
1141.6  1925.6
1142.1  1950
1142.6  1932
1143.1  1962.8
1143.6  1914
1144.1  1951.2
1144.6  2022.8
1145.1  1992
1145.6  2023.2
1146.1  2012.4
1146.6  2001.2
1147.1  2007.2
1147.6  2017.2
1148.1  1997.6
1148.6  1998
1149.1  1974.8
1149.6  1975.6
1150.1  1953.2
1150.6  1934.8
1151.1  1990
1151.6  1971.6
1152.1  1981.6
1152.6  1990.4
1153.1  1977.6
1153.6  1986.4
1154.1  2021.2
1154.6  1988
1155.1  2012.8
1155.6  1993.2
1156.1  2009.6
1156.6  1971.2
1157.1  1958.4
1157.6  1939.2
1158.1  2007.6
1158.6  2003.2
1159.1  1979.2
1159.6  1996.8
1160.1  1994.4
1160.6  2029.6
1161.1  1993.2
1161.6  1985.6
1162.1  1990
1162.6  1976
1163.1  2032.8
1163.6  1930.8
1164.1  1964.4
1164.6  1959.6
1165.1  1989.6
1165.6  2010
1166.1  2051.6
1166.6  2044
1167.1  2170.4
1167.6  2110
1168.1  2088.4
1168.6  2188.4
1169.1  2200.4
1169.6  2119.6
1170.1  2165.2
1170.6  2142.8
1171.1  2218.4
1171.6  2365.6
1172.1  2310
1172.6  2280.8
1173.1  2312.8
1173.6  2236.8
1174.1  2168
1174.6  2098
1175.1  2055.2
1175.6  2020.4
1176.1  1950
1176.6  1963.2
1177.1  1969.2
1177.6  1913.6
1178.1  1985.2
1178.6  1928
1179.1  1955.2
1179.6  1954.4
1180.1  1878
1180.6  1922
1181.1  1973.6
1181.6  1970.8
1182.1  2011.6
1182.6  1916.4
1183.1  2016
1183.6  2018.4
1184.1  2001.6
1184.6  1973.6
1185.1  1954
1185.6  2005.2
1186.1  1968
1186.6  2008.4
1187.1  1964.4
1187.6  1932.4
1188.1  1916.8
1188.6  1994.4
1189.1  1954.4
1189.6  1942.8
1190.1  1962.4
1190.6  1933.6
1191.1  1951.6
1191.6  1964.8
1192.1  1970
1192.6  1998
1193.1  1953.2
1193.6  1947.6
1194.1  1917.6
1194.6  1934.4
1195.1  1866.8
1195.6  1807.6
1196.1  1856
1196.6  1802
1197.1  1894.8
1197.6  1884.4
1198.1  1884.8
1198.6  1881.2
1199.1  1888.4
1199.6  1942
1200.1  1891.2
1200.6  2002.8
1201.1  2022.8
1201.6  2058
1202.1  2162
1202.6  2443.2
1203.1  2683.2
1203.6  2820
1204.1  2858.4
1204.6  2792
1205.1  2494.8
1205.6  2170
1206.1  1935.2
1206.6  1771.6
1207.1  1665.2
1207.6  1598.8
1208.1  1549.2
1208.6  1540
1209.1  1518.8
1209.6  1536.8
1210.1  1590
1210.6  1572.8
1211.1  1601.2
1211.6  1698
1212.1  1715.6
1212.6  1755.2
1213.1  1731.6
1213.6  1772.4
1214.1  1736.8
1214.6  1698
1215.1  1558
1215.6  1518.4
1216.1  1397.6
1216.6  1334.8
1217.1  1268
1217.6  1183.2
1218.1  1164.8
1218.6  1191.6
1219.1  1186
1219.6  1180.8
1220.1  1167.6
1220.6  1135.6
1221.1  1107.2
1221.6  1153.6
1222.1  1188.4
1222.6  1247.2
1223.1  1288.8
1223.6  1356.8
1224.1  1447.6
1224.6  1506
1225.1  1497.2
1225.6  1522.8
1226.1  1384
1226.6  1395.2
1227.1  1340.8
1227.6  1237.6
1228.1  1168.8
1228.6  1161.2
1229.1  1103.6
1229.6  1083.6
1230.1  1048.4
1230.6  1026.4
1231.1  1021.2
1231.6  1025.2
1232.1  1020.4
1232.6  1050.8
1233.1  1038
1233.6  1010.8
1234.1  987.2
1234.6  957.6
1235.1  978.4
1235.6  971.6
1236.1  951.6
1236.6  962.4
1237.1  945.2
1237.6  923.6
1238.1  940.4
1238.6  970.4
1239.1  990.4
1239.6  1019.6
1240.1  1104.8
1240.6  1068.4
1241.1  1096.4
1241.6  1130.4
1242.1  1112.4
1242.6  1106.8
1243.1  1096
1243.6  1066.4
1244.1  1050
1244.6  1116
1245.1  1102
1245.6  1101.6
1246.1  1002
1246.6  978.4
1247.1  973.2
1247.6  970.8
1248.1  904.4
1248.6  916.8
1249.1  874.4
1249.6  826.4
1250.1  830
1250.6  811.6
1251.1  784
1251.6  770
1252.1  770.4
1252.6  768.4
1253.1  757.2
1253.6  774.4
1254.1  768.4
1254.6  752
1255.1  771.6
1255.6  732
1256.1  733.2
1256.6  724.4
1257.1  712.4
1257.6  710.8
1258.1  725.6
1258.6  726

